#!/bin/sh
#
# This script will plot ray paths using GMT. If you want to
#use this as a data file for psxy in another script, delete these
# first lines, to the last psxy, as well as the last line.
#
/bin/rm -f phases_P_S_Pp_ScS_path.gmt.ps
# draw surface and label distances.
psbasemap -K -P -R0/360/0/6371.0 -JP6.0i -B30p/500N > phases_P_S_Pp_ScS_path.gmt.ps
# draw circles for branches, note these are scaled for a 
# map using -JP6.0i
psxy -K -O -P -R -JP -Sc -A >> phases_P_S_Pp_ScS_path.gmt.ps <<ENDLAYERS
0.0 0.0 6.0i
0.0 0.0 6.0i
0.0 0.0 5.9858737i
0.0 0.0 5.9770207i
0.0 0.0 5.7928114i
0.0 0.0 5.623293i
0.0 0.0 5.3690157i
0.0 0.0 3.2773504i
0.0 0.0 1.1503688i
ENDLAYERS

# draw paths
psxy -P -R -K -O -JP -m -A >> phases_P_S_Pp_ScS_path.gmt.ps <<END
> P at   595.40 seconds at    60.00 degrees for a    100.0 km deep source in the prem model with rayParam    6.815 s/deg.
    0.00    6271.0
    0.04    6264.0
    0.04    6263.3
    0.08    6256.0
    0.13    6247.2
    0.17    6238.5
    0.27    6221.0
    0.36    6203.5
    0.46    6186.0
    0.55    6168.5
    0.65    6151.0
    0.66    6148.8
    0.67    6146.5
    0.70    6142.1
    0.76    6133.1
    0.77    6130.6
    0.79    6128.2
    0.85    6117.1
    0.89    6111.6
    0.92    6106.0
    1.00    6093.3
    1.08    6080.5
    1.21    6061.0
    1.21    6060.1
    1.22    6059.2
    1.36    6037.7
    1.50    6016.0
    1.60    6001.4
    1.71    5984.5
    1.81    5971.0
    1.87    5962.3
    1.93    5953.5
    2.07    5935.6
    2.09    5932.7
    2.13    5926.9
    2.18    5921.0
    2.29    5906.2
    2.41    5891.1
    2.57    5871.0
    2.65    5861.7
    2.70    5855.1
    2.76    5848.3
    2.87    5834.8
    2.99    5821.0
    3.00    5820.4
    3.07    5812.3
    3.14    5804.2
    3.29    5787.7
    3.45    5771.0
    3.51    5764.6
    3.57    5758.2
    3.69    5745.3
    3.73    5740.7
    3.78    5736.0
    3.95    5718.5
    4.12    5701.0
    4.16    5697.6
    4.20    5694.2
    4.32    5683.3
    4.44    5672.2
    4.70    5650.0
    5.02    5623.1
    5.30    5600.0
    5.54    5581.1
    5.78    5562.1
    5.93    5550.0
    6.01    5544.0
    6.09    5537.9
    6.35    5519.0
    6.48    5509.5
    6.61    5500.0
    6.92    5477.4
    7.25    5454.7
    7.35    5447.9
    7.50    5437.6
    7.52    5436.5
    7.53    5435.3
    7.57    5433.0
    7.64    5428.3
    7.71    5423.6
    7.78    5418.9
    7.85    5414.2
    7.92    5409.5
    8.07    5400.0
    8.27    5387.1
    8.48    5374.1
    8.69    5361.1
    8.90    5348.1
    9.10    5336.1
    9.31    5324.1
    9.73    5300.0
   10.26    5270.3
   10.83    5240.3
   11.22    5220.2
   11.63    5200.0
   12.11    5176.9
   12.77    5146.9
   13.47    5116.6
   13.51    5115.0
   13.54    5113.5
   13.62    5110.3
   13.77    5104.1
   13.87    5100.0
   14.08    5091.5
   14.74    5066.1
   15.25    5047.4
   15.77    5028.8
   16.63    5000.0
   16.91    4991.1
   17.61    4970.8
   18.31    4950.6
   19.09    4930.1
   19.94    4909.6
   20.37    4900.0
   21.07    4886.1
   21.76    4872.3
   22.32    4862.8
   22.87    4853.4
   23.54    4844.0
   24.22    4834.5
   25.14    4828.8
   26.06    4823.1
   26.99    4817.4
   27.91    4811.6
   28.83    4805.9
   29.76    4800.2
   30.68    4805.9
   31.60    4811.6
   32.53    4817.4
   33.45    4823.1
   34.37    4828.8
   35.29    4834.5
   35.97    4844.0
   36.64    4853.4
   37.20    4862.8
   37.75    4872.3
   38.44    4886.1
   39.14    4900.0
   39.57    4909.6
   40.42    4930.1
   41.20    4950.6
   41.90    4970.8
   42.60    4991.1
   42.88    5000.0
   43.75    5028.8
   44.26    5047.4
   44.78    5066.1
   45.43    5091.5
   45.64    5100.0
   45.74    5104.1
   45.89    5110.3
   45.97    5113.5
   46.01    5115.0
   46.04    5116.6
   46.74    5146.9
   47.40    5176.9
   47.88    5200.0
   48.29    5220.2
   48.69    5240.3
   49.25    5270.3
   49.79    5300.0
   50.21    5324.1
   50.41    5336.1
   50.61    5348.1
   50.82    5361.1
   51.03    5374.1
   51.24    5387.1
   51.44    5400.0
   51.59    5409.5
   51.66    5414.2
   51.73    5418.9
   51.80    5423.6
   51.87    5428.3
   51.94    5433.0
   51.98    5435.3
   51.99    5436.5
   52.01    5437.6
   52.16    5447.9
   52.26    5454.7
   52.59    5477.4
   52.90    5500.0
   53.04    5509.5
   53.16    5519.0
   53.42    5537.9
   53.50    5544.0
   53.58    5550.0
   53.73    5562.1
   53.98    5581.1
   54.21    5600.0
   54.50    5623.1
   54.81    5650.0
   55.07    5672.2
   55.19    5683.3
   55.32    5694.2
   55.35    5697.6
   55.39    5701.0
   55.56    5718.5
   55.73    5736.0
   55.78    5740.7
   55.82    5745.3
   55.95    5758.2
   56.01    5764.6
   56.07    5771.0
   56.22    5787.7
   56.37    5804.2
   56.44    5812.3
   56.51    5820.4
   56.52    5821.0
   56.64    5834.8
   56.75    5848.3
   56.81    5855.1
   56.87    5861.7
   56.94    5871.0
   57.10    5891.1
   57.22    5906.2
   57.34    5921.0
   57.38    5926.9
   57.43    5932.7
   57.45    5935.6
   57.58    5953.5
   57.64    5962.3
   57.71    5971.0
   57.80    5984.5
   57.91    6001.4
   58.01    6016.0
   58.15    6037.7
   58.29    6059.2
   58.30    6060.1
   58.30    6061.0
   58.43    6080.5
   58.51    6093.3
   58.59    6106.0
   58.62    6111.6
   58.66    6117.1
   58.73    6128.2
   58.74    6130.6
   58.76    6133.1
   58.81    6142.1
   58.84    6146.5
   58.85    6148.8
   58.86    6151.0
   58.96    6168.5
   59.06    6186.0
   59.15    6203.5
   59.24    6221.0
   59.34    6238.5
   59.39    6247.2
   59.43    6256.0
   59.47    6263.3
   59.47    6264.0
   59.51    6271.0
   59.55    6277.5
   59.62    6291.0
   59.67    6301.0
   59.72    6311.0
   59.75    6316.0
   59.78    6321.0
   59.80    6326.0
   59.83    6331.0
   59.85    6334.9
   59.87    6338.8
   59.89    6342.7
   59.90    6344.6
   59.91    6346.6
   59.91    6346.9
   59.93    6351.4
   59.94    6353.7
   59.94    6354.9
   59.95    6356.0
   59.97    6363.5
   59.99    6367.3
   59.99    6369.1
   60.00    6370.1
   60.00    6371.0
> S at  1081.26 seconds at    60.00 degrees for a    100.0 km deep source in the prem model with rayParam   12.790 s/deg.
    0.00    6271.0
    0.04    6264.7
    0.08    6256.0
    0.14    6246.0
    0.20    6236.0
    0.28    6221.0
    0.38    6203.5
    0.48    6186.0
    0.58    6168.5
    0.68    6151.0
    0.70    6148.2
    0.72    6145.3
    0.75    6139.7
    0.79    6134.0
    0.82    6128.3
    0.89    6117.2
    0.93    6111.6
    0.96    6106.0
    1.04    6094.7
    1.07    6089.0
    1.11    6083.3
    1.18    6072.2
    1.25    6061.0
    1.33    6048.8
    1.40    6038.3
    1.50    6023.1
    1.55    6016.0
    1.62    6006.6
    1.68    5997.1
    1.77    5984.1
    1.86    5971.0
    1.91    5963.9
    1.96    5956.7
    2.05    5945.0
    2.14    5933.1
    2.19    5927.1
    2.24    5921.0
    2.35    5906.3
    2.47    5891.4
    2.56    5881.3
    2.64    5871.0
    2.76    5856.8
    2.86    5845.0
    2.88    5843.8
    2.91    5839.5
    2.91    5839.3
    2.92    5839.1
    2.92    5838.7
    2.93    5837.9
    2.94    5836.2
    2.95    5835.8
    2.95    5835.4
    2.96    5834.7
    2.97    5833.1
    3.08    5821.0
    3.16    5812.3
    3.29    5798.2
    3.34    5792.5
    3.42    5783.9
    3.46    5779.5
    3.47    5778.7
    3.55    5771.0
    3.58    5767.2
    3.65    5760.6
    3.72    5753.4
    3.89    5736.0
    3.91    5734.3
    3.93    5732.6
    3.94    5730.9
    4.09    5716.0
    4.25    5701.0
    4.30    5696.3
    4.36    5691.6
    4.48    5682.1
    4.68    5666.2
    4.72    5662.4
    4.73    5662.1
    4.73    5661.9
    4.74    5661.3
    4.75    5660.2
    4.75    5660.1
    4.76    5659.5
    4.77    5658.9
    4.79    5657.6
    4.82    5655.1
    4.88    5650.0
    5.16    5629.3
    5.36    5614.7
    5.57    5600.0
    5.64    5595.6
    5.70    5591.1
    5.83    5582.2
    6.10    5564.3
    6.34    5548.3
    6.46    5540.3
    6.59    5532.3
    6.84    5516.2
    6.97    5508.1
    7.10    5500.0
    7.39    5482.3
    7.54    5473.4
    7.69    5464.5
    7.96    5448.4
    8.10    5440.4
    8.24    5432.4
    8.53    5416.2
    8.68    5408.1
    8.82    5400.0
    9.15    5382.3
    9.49    5364.6
   10.12    5332.4
   10.16    5330.7
   10.79    5300.0
   11.47    5268.6
   12.20    5237.0
   13.10    5200.0
   13.59    5181.1
   14.09    5162.2
   14.64    5143.1
   15.18    5124.1
   15.20    5123.5
   15.21    5123.0
   15.25    5121.8
   15.28    5120.7
   15.32    5119.5
   15.36    5118.1
   15.40    5116.6
   15.45    5115.2
   15.49    5113.7
   15.58    5110.8
   15.67    5107.9
   15.80    5103.9
   15.86    5102.0
   15.92    5100.0
   15.93    5099.8
   16.00    5097.6
   16.08    5095.0
   16.16    5092.5
   16.33    5087.3
   16.50    5082.2
   16.68    5077.0
   16.85    5071.9
   17.03    5066.7
   17.05    5066.1
   17.07    5065.6
   17.11    5064.5
   17.15    5063.4
   17.19    5062.2
   17.27    5060.0
   17.35    5057.8
   17.52    5053.3
   17.68    5048.8
   18.02    5039.8
   18.38    5030.8
   19.01    5015.4
   19.34    5007.7
   19.69    5000.0
   20.44    4984.4
   21.26    4968.7
   22.24    4952.9
   23.23    4937.2
   24.00    4927.9
   24.77    4918.6
   25.55    4912.4
   26.34    4906.2
   27.12    4900.0
   27.99    4897.6
   28.87    4895.3
   29.74    4892.9
   30.62    4895.3
   31.49    4897.6
   32.37    4900.0
   33.15    4906.2
   33.93    4912.4
   34.72    4918.6
   35.49    4927.9
   36.25    4937.2
   37.24    4952.9
   38.23    4968.7
   39.05    4984.4
   39.80    5000.0
   40.14    5007.7
   40.48    5015.4
   41.11    5030.8
   41.46    5039.8
   41.81    5048.8
   41.97    5053.3
   42.13    5057.8
   42.21    5060.0
   42.29    5062.2
   42.33    5063.4
   42.37    5064.5
   42.41    5065.6
   42.43    5066.1
   42.45    5066.7
   42.63    5071.9
   42.81    5077.0
   42.98    5082.2
   43.15    5087.3
   43.32    5092.5
   43.41    5095.0
   43.49    5097.6
   43.56    5099.8
   43.56    5100.0
   43.63    5102.0
   43.69    5103.9
   43.81    5107.9
   43.90    5110.8
   43.99    5113.7
   44.04    5115.2
   44.08    5116.6
   44.13    5118.1
   44.17    5119.5
   44.20    5120.7
   44.24    5121.8
   44.27    5123.0
   44.29    5123.5
   44.31    5124.1
   44.85    5143.1
   45.39    5162.2
   45.90    5181.1
   46.39    5200.0
   47.29    5237.0
   48.01    5268.6
   48.69    5300.0
   49.33    5330.7
   49.36    5332.4
   50.00    5364.6
   50.34    5382.3
   50.66    5400.0
   50.81    5408.1
   50.96    5416.2
   51.24    5432.4
   51.38    5440.4
   51.52    5448.4
   51.80    5464.5
   51.95    5473.4
   52.09    5482.3
   52.38    5500.0
   52.51    5508.1
   52.64    5516.2
   52.90    5532.3
   53.02    5540.3
   53.15    5548.3
   53.39    5564.3
   53.65    5582.2
   53.78    5591.1
   53.85    5595.6
   53.91    5600.0
   54.12    5614.7
   54.32    5629.3
   54.60    5650.0
   54.67    5655.1
   54.70    5657.6
   54.72    5658.9
   54.73    5659.5
   54.73    5660.1
   54.73    5660.2
   54.75    5661.3
   54.76    5661.9
   54.76    5662.1
   54.76    5662.4
   54.81    5666.2
   55.01    5682.1
   55.13    5691.6
   55.18    5696.3
   55.24    5701.0
   55.39    5716.0
   55.54    5730.9
   55.56    5732.6
   55.58    5734.3
   55.59    5736.0
   55.77    5753.4
   55.84    5760.6
   55.90    5767.2
   55.94    5771.0
   56.01    5778.7
   56.02    5779.5
   56.06    5783.9
   56.15    5792.5
   56.20    5798.2
   56.33    5812.3
   56.41    5821.0
   56.52    5833.1
   56.53    5834.7
   56.54    5835.4
   56.54    5835.8
   56.54    5836.2
   56.56    5837.9
   56.57    5838.7
   56.57    5839.1
   56.57    5839.3
   56.57    5839.5
   56.61    5843.8
   56.62    5845.0
   56.72    5856.8
   56.84    5871.0
   56.93    5881.3
   57.01    5891.4
   57.13    5906.3
   57.25    5921.0
   57.30    5927.1
   57.34    5933.1
   57.43    5945.0
   57.52    5956.7
   57.57    5963.9
   57.63    5971.0
   57.72    5984.1
   57.81    5997.1
   57.87    6006.6
   57.93    6016.0
   57.98    6023.1
   58.08    6038.3
   58.15    6048.8
   58.23    6061.0
   58.31    6072.2
   58.38    6083.3
   58.41    6089.0
   58.45    6094.7
   58.52    6106.0
   58.56    6111.6
   58.59    6117.2
   58.66    6128.3
   58.70    6134.0
   58.74    6139.7
   58.77    6145.3
   58.79    6148.2
   58.81    6151.0
   58.91    6168.5
   59.01    6186.0
   59.11    6203.5
   59.21    6221.0
   59.29    6236.0
   59.35    6246.0
   59.40    6256.0
   59.45    6264.7
   59.49    6271.0
   59.50    6273.5
   59.55    6282.2
   59.60    6291.0
   59.65    6301.0
   59.71    6311.0
   59.75    6319.2
   59.78    6323.2
   59.80    6327.3
   59.82    6331.0
   59.84    6334.9
   59.86    6338.8
   59.88    6342.7
   59.89    6344.6
   59.90    6346.6
   59.93    6351.3
   59.94    6353.7
   59.94    6354.8
   59.95    6356.0
   59.97    6363.5
   59.99    6367.2
   59.99    6369.1
   60.00    6370.1
   60.00    6371.0
> ScS at  1176.81 seconds at    60.00 degrees for a    100.0 km deep source in the prem model with rayParam    7.448 s/deg.
    0.00    6271.0
    0.02    6264.7
    0.04    6256.0
    0.07    6246.0
    0.10    6236.0
    0.15    6221.0
    0.20    6203.5
    0.25    6186.0
    0.30    6168.5
    0.35    6151.0
    0.36    6148.2
    0.37    6145.3
    0.39    6139.7
    0.41    6134.0
    0.43    6128.3
    0.46    6117.2
    0.48    6111.6
    0.50    6106.0
    0.54    6094.7
    0.55    6089.0
    0.57    6083.3
    0.61    6072.2
    0.65    6061.0
    0.69    6048.8
    0.72    6038.3
    0.77    6023.1
    0.80    6016.0
    0.83    6006.6
    0.86    5997.1
    0.91    5984.1
    0.95    5971.0
    0.98    5963.9
    1.00    5956.7
    1.05    5945.0
    1.09    5933.1
    1.12    5927.1
    1.14    5921.0
    1.19    5906.3
    1.25    5891.4
    1.29    5881.3
    1.33    5871.0
    1.39    5856.8
    1.44    5845.0
    1.44    5843.8
    1.46    5839.5
    1.46    5839.3
    1.46    5839.1
    1.46    5838.7
    1.47    5837.9
    1.48    5836.2
    1.48    5835.8
    1.48    5835.4
    1.48    5834.7
    1.49    5833.1
    1.54    5821.0
    1.58    5812.3
    1.64    5798.2
    1.66    5792.5
    1.70    5783.9
    1.72    5779.5
    1.72    5778.7
    1.76    5771.0
    1.77    5767.2
    1.80    5760.6
    1.83    5753.4
    1.91    5736.0
    1.92    5734.3
    1.93    5732.6
    1.93    5730.9
    2.00    5716.0
    2.07    5701.0
    2.10    5696.3
    2.12    5691.6
    2.17    5682.1
    2.25    5666.2
    2.27    5662.4
    2.27    5662.1
    2.27    5661.9
    2.27    5661.3
    2.28    5660.2
    2.28    5660.1
    2.28    5659.5
    2.29    5658.9
    2.29    5657.6
    2.31    5655.1
    2.33    5650.0
    2.44    5629.3
    2.52    5614.7
    2.60    5600.0
    2.63    5595.6
    2.65    5591.1
    2.70    5582.2
    2.80    5564.3
    2.89    5548.3
    2.94    5540.3
    2.98    5532.3
    3.08    5516.2
    3.12    5508.1
    3.17    5500.0
    3.28    5482.3
    3.33    5473.4
    3.38    5464.5
    3.48    5448.4
    3.53    5440.4
    3.57    5432.4
    3.67    5416.2
    3.72    5408.1
    3.77    5400.0
    3.88    5382.3
    3.99    5364.6
    4.20    5332.4
    4.21    5330.7
    4.41    5300.0
    4.62    5268.6
    4.83    5237.0
    5.09    5200.0
    5.22    5181.1
    5.35    5162.2
    5.63    5124.1
    5.63    5123.5
    5.63    5123.0
    5.64    5121.8
    5.65    5120.7
    5.66    5119.5
    5.67    5118.1
    5.68    5116.6
    5.69    5115.2
    5.70    5113.7
    5.72    5110.8
    5.74    5107.9
    5.77    5103.9
    5.79    5102.0
    5.80    5100.0
    5.80    5099.8
    5.82    5097.6
    5.84    5095.0
    5.86    5092.5
    5.90    5087.3
    5.94    5082.2
    5.97    5077.0
    6.01    5071.9
    6.05    5066.7
    6.06    5066.1
    6.06    5065.6
    6.07    5064.5
    6.08    5063.4
    6.08    5062.2
    6.10    5060.0
    6.12    5057.8
    6.15    5053.3
    6.19    5048.8
    6.25    5039.8
    6.32    5030.8
    6.44    5015.4
    6.50    5007.7
    6.56    5000.0
    6.69    4984.4
    6.81    4968.7
    7.07    4937.2
    7.22    4918.6
    7.37    4900.0
    7.69    4862.2
    8.02    4824.2
    8.05    4821.2
    8.07    4818.2
    8.13    4812.1
    8.24    4800.0
    8.27    4796.6
    8.30    4793.3
    8.43    4778.2
    8.50    4770.7
    8.57    4763.1
    8.73    4745.9
    8.89    4728.6
    9.13    4702.4
    9.14    4701.2
    9.16    4700.0
    9.43    4671.0
    9.72    4642.0
    9.91    4622.6
   10.14    4600.0
   10.32    4582.0
   10.35    4579.5
   10.38    4576.9
   10.43    4571.8
   10.54    4561.6
   10.75    4541.2
   10.77    4539.5
   10.79    4537.8
   10.99    4518.9
   11.20    4500.0
   11.23    4497.3
   11.26    4494.6
   11.50    4472.8
   11.74    4450.9
   12.25    4407.0
   12.33    4400.0
   12.50    4385.8
   12.67    4371.5
   13.11    4335.8
   13.56    4300.0
   14.17    4252.5
   14.46    4230.9
   14.67    4215.5
   14.89    4200.0
   15.32    4168.9
   15.77    4137.7
   15.79    4136.3
   16.06    4118.2
   16.33    4100.0
   16.89    4063.5
   17.48    4026.8
   17.59    4020.1
   17.70    4013.4
   17.92    4000.0
   18.00    3995.1
   18.08    3990.3
   18.39    3972.1
   18.70    3954.0
   18.74    3951.7
   18.78    3949.4
   18.86    3944.8
   19.06    3933.6
   19.26    3922.4
   19.46    3911.2
   19.67    3900.0
   20.08    3877.5
   20.52    3855.0
   21.41    3809.7
   21.51    3804.9
   21.61    3800.0
   21.94    3784.4
   22.27    3768.8
   22.95    3737.5
   23.81    3700.0
   24.57    3668.3
   25.05    3649.2
   25.54    3630.0
   25.93    3615.0
   26.13    3607.5
   26.33    3600.0
   26.97    3576.8
   27.29    3565.2
   27.62    3553.6
   28.41    3526.8
   29.23    3500.0
   29.48    3492.0
   29.86    3480.0
   30.25    3492.0
   30.50    3500.0
   31.32    3526.8
   32.11    3553.6
   32.44    3565.2
   32.76    3576.8
   33.40    3600.0
   33.60    3607.5
   33.80    3615.0
   34.19    3630.0
   34.68    3649.2
   35.16    3668.3
   35.92    3700.0
   36.78    3737.5
   37.46    3768.8
   37.79    3784.4
   38.12    3800.0
   38.22    3804.9
   38.31    3809.7
   39.21    3855.0
   39.64    3877.5
   40.06    3900.0
   40.27    3911.2
   40.47    3922.4
   40.67    3933.6
   40.87    3944.8
   40.95    3949.4
   40.99    3951.7
   41.03    3954.0
   41.34    3972.1
   41.65    3990.3
   41.73    3995.1
   41.81    4000.0
   42.03    4013.4
   42.14    4020.1
   42.25    4026.8
   42.84    4063.5
   43.40    4100.0
   43.67    4118.2
   43.94    4136.3
   43.96    4137.7
   44.41    4168.9
   44.84    4200.0
   45.06    4215.5
   45.27    4230.9
   45.56    4252.5
   46.17    4300.0
   46.62    4335.8
   47.06    4371.5
   47.23    4385.8
   47.40    4400.0
   47.48    4407.0
   47.99    4450.9
   48.23    4472.8
   48.47    4494.6
   48.50    4497.3
   48.53    4500.0
   48.74    4518.9
   48.94    4537.8
   48.96    4539.5
   48.98    4541.2
   49.19    4561.6
   49.30    4571.8
   49.35    4576.9
   49.38    4579.5
   49.40    4582.0
   49.59    4600.0
   49.82    4622.6
   50.01    4642.0
   50.30    4671.0
   50.57    4700.0
   50.59    4701.2
   50.60    4702.4
   50.84    4728.6
   51.00    4745.9
   51.16    4763.1
   51.23    4770.7
   51.30    4778.2
   51.43    4793.3
   51.46    4796.6
   51.49    4800.0
   51.60    4812.1
   51.65    4818.2
   51.68    4821.2
   51.71    4824.2
   52.04    4862.2
   52.36    4900.0
   52.51    4918.6
   52.66    4937.2
   52.92    4968.7
   53.04    4984.4
   53.17    5000.0
   53.23    5007.7
   53.29    5015.4
   53.41    5030.8
   53.47    5039.8
   53.54    5048.8
   53.58    5053.3
   53.61    5057.8
   53.63    5060.0
   53.64    5062.2
   53.65    5063.4
   53.66    5064.5
   53.67    5065.6
   53.67    5066.1
   53.68    5066.7
   53.72    5071.9
   53.76    5077.0
   53.79    5082.2
   53.83    5087.3
   53.87    5092.5
   53.89    5095.0
   53.91    5097.6
   53.92    5099.8
   53.93    5100.0
   53.94    5102.0
   53.96    5103.9
   53.98    5107.9
   54.01    5110.8
   54.03    5113.7
   54.04    5115.2
   54.05    5116.6
   54.06    5118.1
   54.07    5119.5
   54.08    5120.7
   54.09    5121.8
   54.09    5123.0
   54.10    5123.5
   54.10    5124.1
   54.38    5162.2
   54.51    5181.1
   54.64    5200.0
   54.90    5237.0
   55.11    5268.6
   55.32    5300.0
   55.52    5330.7
   55.53    5332.4
   55.73    5364.6
   55.85    5382.3
   55.96    5400.0
   56.01    5408.1
   56.06    5416.2
   56.15    5432.4
   56.20    5440.4
   56.25    5448.4
   56.35    5464.5
   56.40    5473.4
   56.45    5482.3
   56.56    5500.0
   56.60    5508.1
   56.65    5516.2
   56.74    5532.3
   56.79    5540.3
   56.84    5548.3
   56.93    5564.3
   57.03    5582.2
   57.08    5591.1
   57.10    5595.6
   57.13    5600.0
   57.21    5614.7
   57.29    5629.3
   57.40    5650.0
   57.42    5655.1
   57.44    5657.6
   57.44    5658.9
   57.45    5659.5
   57.45    5660.1
   57.45    5660.2
   57.46    5661.3
   57.46    5661.9
   57.46    5662.1
   57.46    5662.4
   57.48    5666.2
   57.56    5682.1
   57.61    5691.6
   57.63    5696.3
   57.66    5701.0
   57.73    5716.0
   57.79    5730.9
   57.80    5732.6
   57.81    5734.3
   57.82    5736.0
   57.90    5753.4
   57.93    5760.6
   57.96    5767.2
   57.97    5771.0
   58.01    5778.7
   58.01    5779.5
   58.03    5783.9
   58.07    5792.5
   58.09    5798.2
   58.15    5812.3
   58.19    5821.0
   58.24    5833.1
   58.25    5834.7
   58.25    5835.4
   58.25    5835.8
   58.25    5836.2
   58.26    5837.9
   58.26    5838.7
   58.27    5839.1
   58.27    5839.3
   58.27    5839.5
   58.29    5843.8
   58.29    5845.0
   58.34    5856.8
   58.40    5871.0
   58.44    5881.3
   58.48    5891.4
   58.53    5906.3
   58.59    5921.0
   58.61    5927.1
   58.64    5933.1
   58.68    5945.0
   58.72    5956.7
   58.75    5963.9
   58.78    5971.0
   58.82    5984.1
   58.87    5997.1
   58.90    6006.6
   58.93    6016.0
   58.96    6023.1
   59.01    6038.3
   59.04    6048.8
   59.08    6061.0
   59.12    6072.2
   59.16    6083.3
   59.17    6089.0
   59.19    6094.7
   59.23    6106.0
   59.25    6111.6
   59.27    6117.2
   59.30    6128.3
   59.32    6134.0
   59.34    6139.7
   59.36    6145.3
   59.37    6148.2
   59.37    6151.0
   59.43    6168.5
   59.48    6186.0
   59.53    6203.5
   59.58    6221.0
   59.63    6236.0
   59.66    6246.0
   59.69    6256.0
   59.71    6264.7
   59.73    6271.0
   59.74    6273.5
   59.76    6282.2
   59.79    6291.0
   59.82    6301.0
   59.85    6311.0
   59.87    6319.2
   59.88    6323.2
   59.89    6327.3
   59.90    6331.0
   59.91    6334.9
   59.92    6338.8
   59.94    6342.7
   59.94    6344.6
   59.95    6346.6
   59.96    6351.3
   59.96    6353.7
   59.97    6354.8
   59.97    6356.0
   59.99    6363.5
   59.99    6367.2
   60.00    6369.1
   60.00    6370.1
   60.00    6371.0
END
psxy -P -R -O -JP -m -A >> phases_P_S_Pp_ScS_path.gmt.ps <<END
END
