#!/bin/sh
#
# This script will plot ray paths using GMT. If you want to
#use this as a data file for psxy in another script, delete these
# first lines, to the last psxy, as well as the last line.
#//find all the phases for the following event station locations
# station - 22 91 , 22 91
# event - 45 178 , -18 -118
# event death - 30 , 200 
#Plot the phases
#taup_path -mod iasp91 -h 100 -deg 60 -ph P,S,Pp,ScS --gmt -o phases_P_S_Pp_ScS_path.gmt
/bin/rm -f phases_P_S_Pp_ScS_path.gmt.ps
# draw surface and label distances.
gmt psbasemap -K -P -R0/360/0/6371.0 -JP6.0i -B30p/500N > phases_P_S_Pp_ScS_path.gmt.ps
# draw circles for branches, note these are scaled for a 
# map using -JP6.0i
gmt psxy -K -O -P -R -JP -Sc -A >> phases_P_S_Pp_ScS_path.gmt.ps <<ENDLAYERS
0.0 0.0 6.0i
0.0 0.0 6.0i
0.0 0.0 5.9811645i
0.0 0.0 5.967038i
0.0 0.0 5.802229i
0.0 0.0 5.6138754i
0.0 0.0 5.3784337i
0.0 0.0 3.279234i
0.0 0.0 1.1462251i
ENDLAYERS

# draw paths
gmt psxy -P -R -K -O -JP -m -A >> phases_P_S_Pp_ScS_path.gmt.ps <<END
> P at   595.96 seconds at    60.00 degrees for a    100.0 km deep source in the iasp91 model with rayParam    6.844 s/deg.
    0.00    6271.0
    0.00    6270.5
    0.11    6251.0
    0.12    6249.2
    0.13    6247.4
    0.15    6243.8
    0.19    6236.5
    0.26    6222.6
    0.34    6208.5
    0.35    6207.2
    0.35    6206.0
    0.42    6193.2
    0.50    6180.3
    0.61    6161.0
    0.63    6157.3
    0.65    6153.7
    0.72    6142.0
    0.79    6130.2
    0.90    6111.0
    0.92    6108.8
    0.93    6106.6
    1.00    6094.8
    1.04    6088.8
    1.08    6082.8
    1.15    6072.0
    1.22    6061.0
    1.22    6059.9
    1.23    6058.8
    1.31    6046.8
    1.35    6040.7
    1.39    6034.6
    1.47    6022.9
    1.55    6011.0
    1.55    6010.6
    1.55    6010.2
    1.63    5998.0
    1.68    5991.8
    1.72    5985.6
    1.80    5973.3
    1.89    5961.0
    1.92    5957.4
    1.95    5953.8
    2.00    5946.5
    2.11    5932.6
    2.22    5918.6
    2.28    5911.0
    2.44    5890.3
    2.68    5861.7
    2.68    5861.0
    2.92    5832.7
    3.11    5811.0
    3.18    5803.3
    3.45    5773.4
    3.56    5761.0
    3.73    5743.1
    4.03    5712.3
    4.04    5711.0
    4.06    5708.9
    4.09    5706.8
    4.13    5702.6
    4.23    5694.1
    4.42    5677.6
    4.61    5661.0
    4.65    5657.9
    4.68    5654.9
    4.92    5635.0
    5.16    5615.0
    5.21    5611.0
    5.49    5588.6
    5.78    5566.0
    5.81    5563.8
    5.84    5561.5
    6.12    5540.8
    6.40    5520.0
    6.51    5512.0
    7.06    5473.0
    7.21    5462.5
    7.77    5425.1
    7.78    5424.3
    7.79    5423.6
    7.82    5422.1
    7.86    5419.0
    7.91    5416.0
    7.96    5413.0
    8.05    5406.9
    8.15    5400.7
    8.24    5394.5
    8.34    5388.3
    8.54    5375.9
    8.75    5363.5
    8.95    5351.2
    9.16    5338.8
    9.37    5326.4
    9.59    5314.0
   10.03    5289.3
   10.49    5264.5
   10.96    5239.8
   11.46    5215.0
   11.97    5190.3
   12.51    5165.5
   13.13    5138.2
   13.19    5135.7
   13.25    5133.3
   13.36    5128.3
   13.60    5118.4
   13.66    5116.0
   14.10    5098.3
   14.62    5078.1
   14.93    5066.5
   15.17    5057.7
   15.75    5037.8
   16.33    5017.8
   16.35    5017.0
   16.96    4997.5
   17.64    4977.2
   17.98    4967.5
   18.56    4952.3
   19.13    4937.1
   19.94    4918.0
   19.98    4917.0
   20.93    4896.6
   21.70    4882.5
   22.46    4868.5
   23.23    4856.6
   24.01    4846.5
   24.79    4836.4
   25.78    4827.7
   26.76    4819.0
   27.24    4816.1
   28.08    4813.7
   28.92    4811.4
   29.77    4809.1
   30.61    4811.4
   31.45    4813.7
   32.29    4816.1
   32.77    4819.0
   33.75    4827.7
   34.74    4836.4
   35.52    4846.5
   36.30    4856.6
   37.07    4868.5
   37.83    4882.5
   38.60    4896.6
   39.55    4917.0
   39.59    4918.0
   40.40    4937.1
   40.97    4952.3
   41.55    4967.5
   41.89    4977.2
   42.57    4997.5
   43.18    5017.0
   43.20    5017.8
   43.78    5037.8
   44.36    5057.7
   44.60    5066.5
   44.91    5078.1
   45.43    5098.3
   45.87    5116.0
   45.93    5118.4
   46.17    5128.3
   46.28    5133.3
   46.34    5135.7
   46.40    5138.2
   47.02    5165.5
   47.56    5190.3
   48.07    5215.0
   48.57    5239.8
   49.04    5264.5
   49.50    5289.3
   49.94    5314.0
   50.16    5326.4
   50.37    5338.8
   50.58    5351.2
   50.78    5363.5
   50.99    5375.9
   51.19    5388.3
   51.29    5394.5
   51.38    5400.7
   51.48    5406.9
   51.57    5413.0
   51.62    5416.0
   51.67    5419.0
   51.71    5422.1
   51.74    5423.6
   51.75    5424.3
   51.76    5425.1
   52.32    5462.5
   52.47    5473.0
   53.02    5512.0
   53.13    5520.0
   53.41    5540.8
   53.69    5561.5
   53.72    5563.8
   53.75    5566.0
   54.04    5588.6
   54.32    5611.0
   54.37    5615.0
   54.61    5635.0
   54.85    5654.9
   54.89    5657.9
   54.92    5661.0
   55.11    5677.6
   55.30    5694.1
   55.40    5702.6
   55.44    5706.8
   55.47    5708.9
   55.49    5711.0
   55.50    5712.3
   55.80    5743.1
   55.97    5761.0
   56.08    5773.4
   56.35    5803.3
   56.42    5811.0
   56.61    5832.7
   56.85    5861.0
   56.85    5861.7
   57.09    5890.3
   57.25    5911.0
   57.31    5918.6
   57.42    5932.6
   57.53    5946.5
   57.58    5953.8
   57.61    5957.4
   57.64    5961.0
   57.73    5973.3
   57.81    5985.6
   57.85    5991.8
   57.90    5998.0
   57.98    6010.2
   57.98    6010.6
   57.99    6011.0
   58.06    6022.9
   58.14    6034.6
   58.18    6040.7
   58.22    6046.8
   58.30    6058.8
   58.31    6059.9
   58.31    6061.0
   58.38    6072.0
   58.45    6082.8
   58.49    6088.8
   58.53    6094.8
   58.60    6106.6
   58.61    6108.8
   58.63    6111.0
   58.74    6130.2
   58.81    6142.0
   58.88    6153.7
   58.90    6157.3
   58.92    6161.0
   59.03    6180.3
   59.11    6193.2
   59.18    6206.0
   59.18    6207.2
   59.19    6208.5
   59.27    6222.6
   59.35    6236.5
   59.38    6243.8
   59.40    6247.4
   59.41    6249.2
   59.42    6251.0
   59.53    6270.5
   59.53    6271.0
   59.58    6280.2
   59.63    6290.0
   59.65    6293.5
   59.71    6304.1
   59.76    6314.8
   59.79    6320.1
   59.82    6325.4
   59.84    6330.7
   59.86    6333.3
   59.86    6334.7
   59.87    6336.0
   59.90    6343.5
   59.92    6347.2
   59.92    6349.1
   59.93    6350.1
   59.93    6351.0
   59.95    6356.0
   59.97    6361.0
   59.98    6366.0
   59.99    6368.5
   60.00    6369.7
   60.00    6371.0
   60.00    6371.0
> S at  1081.28 seconds at    60.00 degrees for a    100.0 km deep source in the iasp91 model with rayParam   12.813 s/deg.
    0.00    6271.0
    0.00    6270.2
    0.10    6253.3
    0.11    6251.0
    0.18    6239.7
    0.24    6228.4
    0.28    6221.5
    0.37    6206.0
    0.42    6197.6
    0.47    6189.1
    0.55    6175.1
    0.64    6161.0
    0.72    6147.3
    0.79    6135.3
    0.87    6123.2
    0.94    6111.0
    1.03    6097.3
    1.10    6085.3
    1.18    6073.2
    1.26    6061.0
    1.38    6043.4
    1.49    6027.3
    1.54    6019.8
    1.60    6011.0
    1.63    6005.4
    1.74    5990.7
    1.84    5975.9
    1.95    5961.0
    1.98    5956.6
    2.02    5952.1
    2.05    5947.7
    2.09    5943.2
    2.15    5935.3
    2.21    5927.2
    2.28    5919.1
    2.31    5915.1
    2.34    5911.0
    2.43    5900.8
    2.51    5890.6
    2.69    5869.8
    2.76    5861.0
    2.85    5850.9
    2.92    5843.3
    2.92    5843.3
    2.92    5842.9
    2.92    5842.6
    2.93    5841.9
    2.94    5840.5
    2.95    5839.1
    2.96    5837.8
    2.97    5837.4
    2.97    5837.1
    2.98    5836.4
    2.99    5835.1
    3.01    5832.5
    3.06    5827.2
    3.21    5811.0
    3.37    5793.3
    3.52    5777.2
    3.62    5766.6
    3.68    5761.0
    3.69    5760.0
    3.80    5748.3
    3.85    5743.9
    3.99    5729.8
    4.01    5727.5
    4.18    5711.0
    4.24    5706.6
    4.29    5702.1
    4.40    5693.2
    4.57    5679.4
    4.60    5677.2
    4.70    5669.1
    4.80    5661.0
    5.05    5642.3
    5.31    5623.4
    5.48    5611.0
    5.57    5604.7
    5.66    5598.4
    5.75    5592.1
    5.85    5585.7
    6.03    5573.6
    6.12    5567.6
    6.21    5561.5
    6.40    5548.9
    6.59    5536.3
    6.97    5512.0
    7.38    5486.8
    7.78    5462.5
    8.21    5437.3
    8.64    5413.0
    9.10    5387.8
    9.56    5363.5
   10.06    5338.3
   10.55    5314.0
   11.08    5288.9
   11.62    5264.5
   12.20    5239.3
   12.49    5227.2
   12.78    5215.0
   13.40    5190.3
   14.06    5165.5
   14.66    5143.8
   14.68    5143.0
   14.71    5142.2
   14.75    5140.6
   14.85    5137.4
   14.94    5134.2
   15.03    5131.0
   15.22    5124.6
   15.42    5118.1
   15.48    5116.0
   15.67    5110.0
   15.84    5104.4
   15.85    5104.1
   16.24    5092.1
   16.34    5088.9
   16.45    5085.7
   16.66    5079.3
   17.11    5066.5
   18.02    5041.8
   18.52    5029.4
   19.02    5017.0
   19.11    5014.8
   19.21    5012.6
   19.72    5001.4
   20.24    4990.1
   20.83    4978.8
   21.42    4967.5
   22.16    4956.2
   22.89    4944.8
   23.63    4933.5
   24.27    4925.8
   24.99    4918.0
   25.94    4913.3
   26.89    4908.6
   27.85    4903.9
   28.80    4899.2
   29.75    4894.4
   30.70    4899.2
   31.65    4903.9
   32.60    4908.6
   33.55    4913.3
   34.51    4918.0
   35.23    4925.8
   35.86    4933.5
   36.60    4944.8
   37.34    4956.2
   38.08    4967.5
   38.67    4978.8
   39.26    4990.1
   39.77    5001.4
   40.29    5012.6
   40.39    5014.8
   40.48    5017.0
   40.98    5029.4
   41.48    5041.8
   42.39    5066.5
   42.84    5079.3
   43.05    5085.7
   43.16    5088.9
   43.26    5092.1
   43.64    5104.1
   43.65    5104.4
   43.83    5110.0
   44.01    5116.0
   44.08    5118.1
   44.27    5124.6
   44.46    5131.0
   44.56    5134.2
   44.65    5137.4
   44.74    5140.6
   44.79    5142.2
   44.81    5143.0
   44.84    5143.8
   45.44    5165.5
   46.10    5190.3
   46.72    5215.0
   47.01    5227.2
   47.30    5239.3
   47.88    5264.5
   48.41    5288.9
   48.94    5314.0
   49.44    5338.3
   49.93    5363.5
   50.39    5387.8
   50.85    5413.0
   51.28    5437.3
   51.72    5462.5
   52.12    5486.8
   52.53    5512.0
   52.91    5536.3
   53.10    5548.9
   53.29    5561.5
   53.38    5567.6
   53.47    5573.6
   53.65    5585.7
   53.74    5592.1
   53.83    5598.4
   53.92    5604.7
   54.01    5611.0
   54.19    5623.4
   54.45    5642.3
   54.69    5661.0
   54.80    5669.1
   54.90    5677.2
   54.93    5679.4
   55.10    5693.2
   55.21    5702.1
   55.26    5706.6
   55.32    5711.0
   55.49    5727.5
   55.51    5729.8
   55.65    5743.9
   55.69    5748.3
   55.81    5760.0
   55.82    5761.0
   55.87    5766.6
   55.98    5777.2
   56.13    5793.3
   56.29    5811.0
   56.44    5827.2
   56.49    5832.5
   56.51    5835.1
   56.52    5836.4
   56.53    5837.1
   56.53    5837.4
   56.53    5837.8
   56.54    5839.1
   56.56    5840.5
   56.57    5841.9
   56.58    5842.6
   56.58    5842.9
   56.58    5843.3
   56.58    5843.3
   56.65    5850.9
   56.74    5861.0
   56.81    5869.8
   56.99    5890.6
   57.07    5900.8
   57.15    5911.0
   57.19    5915.1
   57.22    5919.1
   57.29    5927.2
   57.35    5935.3
   57.41    5943.2
   57.45    5947.7
   57.48    5952.1
   57.52    5956.6
   57.55    5961.0
   57.66    5975.9
   57.76    5990.7
   57.86    6005.4
   57.90    6011.0
   57.96    6019.8
   58.01    6027.3
   58.12    6043.4
   58.24    6061.0
   58.32    6073.2
   58.39    6085.3
   58.47    6097.3
   58.56    6111.0
   58.63    6123.2
   58.71    6135.3
   58.78    6147.3
   58.86    6161.0
   58.94    6175.1
   59.03    6189.1
   59.08    6197.6
   59.12    6206.0
   59.21    6221.5
   59.25    6228.4
   59.32    6239.7
   59.38    6251.0
   59.40    6253.3
   59.49    6270.2
   59.50    6271.0
   59.56    6281.9
   59.62    6293.5
   59.68    6304.1
   59.74    6314.6
   59.80    6325.3
   59.83    6330.7
   59.84    6333.3
   59.85    6334.7
   59.86    6336.0
   59.89    6343.5
   59.91    6347.2
   59.92    6349.1
   59.92    6350.1
   59.92    6351.0
   59.94    6356.0
   59.96    6361.0
   59.98    6366.0
   59.99    6368.5
   60.00    6369.8
   60.00    6371.0
> ScS at  1176.63 seconds at    60.00 degrees for a    100.0 km deep source in the iasp91 model with rayParam    7.455 s/deg.
    0.00    6271.0
    0.00    6270.2
    0.05    6253.3
    0.06    6251.0
    0.09    6239.7
    0.13    6228.4
    0.15    6221.5
    0.19    6206.0
    0.22    6197.6
    0.24    6189.1
    0.29    6175.1
    0.33    6161.0
    0.37    6147.3
    0.41    6135.3
    0.45    6123.2
    0.49    6111.0
    0.53    6097.3
    0.57    6085.3
    0.61    6073.2
    0.65    6061.0
    0.71    6043.4
    0.76    6027.3
    0.79    6019.8
    0.82    6011.0
    0.84    6005.4
    0.89    5990.7
    0.94    5975.9
    0.99    5961.0
    1.01    5956.6
    1.03    5952.1
    1.04    5947.7
    1.06    5943.2
    1.09    5935.3
    1.12    5927.2
    1.15    5919.1
    1.17    5915.1
    1.19    5911.0
    1.23    5900.8
    1.27    5890.6
    1.35    5869.8
    1.39    5861.0
    1.43    5850.9
    1.46    5843.3
    1.46    5843.3
    1.46    5842.9
    1.46    5842.6
    1.46    5841.9
    1.47    5840.5
    1.48    5839.1
    1.48    5837.8
    1.48    5837.4
    1.48    5837.1
    1.49    5836.4
    1.49    5835.1
    1.50    5832.5
    1.52    5827.2
    1.59    5811.0
    1.67    5793.3
    1.74    5777.2
    1.79    5766.6
    1.81    5761.0
    1.81    5760.0
    1.87    5748.3
    1.89    5743.9
    1.95    5729.8
    1.96    5727.5
    2.04    5711.0
    2.06    5706.6
    2.08    5702.1
    2.13    5693.2
    2.20    5679.4
    2.21    5677.2
    2.25    5669.1
    2.29    5661.0
    2.39    5642.3
    2.49    5623.4
    2.56    5611.0
    2.59    5604.7
    2.63    5598.4
    2.66    5592.1
    2.70    5585.7
    2.77    5573.6
    2.80    5567.6
    2.83    5561.5
    2.91    5548.9
    2.98    5536.3
    3.12    5512.0
    3.27    5486.8
    3.41    5462.5
    3.56    5437.3
    3.71    5413.0
    3.86    5387.8
    4.02    5363.5
    4.18    5338.3
    4.33    5314.0
    4.50    5288.9
    4.66    5264.5
    4.83    5239.3
    4.91    5227.2
    5.00    5215.0
    5.17    5190.3
    5.34    5165.5
    5.50    5143.8
    5.50    5143.0
    5.51    5142.2
    5.52    5140.6
    5.54    5137.4
    5.57    5134.2
    5.59    5131.0
    5.64    5124.6
    5.68    5118.1
    5.70    5116.0
    5.74    5110.0
    5.78    5104.4
    5.79    5104.1
    5.87    5092.1
    5.90    5088.9
    5.92    5085.7
    5.97    5079.3
    6.06    5066.5
    6.25    5041.8
    6.44    5017.0
    6.46    5014.8
    6.48    5012.6
    6.65    4990.1
    6.83    4967.5
    7.11    4933.5
    7.17    4925.8
    7.24    4918.0
    7.44    4893.3
    7.65    4868.5
    8.00    4828.2
    8.04    4823.6
    8.08    4819.0
    8.30    4794.3
    8.41    4781.9
    8.52    4769.5
    8.73    4747.0
    8.94    4724.4
    8.96    4722.2
    8.98    4720.0
    9.21    4695.3
    9.33    4682.9
    9.45    4670.5
    9.68    4646.6
    9.92    4622.5
    9.93    4621.8
    9.94    4621.0
   10.19    4596.3
   10.31    4583.9
   10.44    4571.5
   10.70    4547.1
   10.96    4522.6
   10.96    4522.3
   10.97    4522.0
   11.10    4509.7
   11.23    4497.3
   11.37    4484.9
   11.51    4472.5
   11.79    4447.8
   12.07    4423.0
   12.35    4399.4
   12.42    4393.0
   12.50    4386.5
   12.65    4373.5
   12.95    4348.8
   13.26    4324.0
   13.43    4310.6
   13.89    4274.5
   14.55    4225.0
   14.56    4223.8
   15.23    4175.5
   15.76    4139.0
   15.95    4126.0
   16.69    4076.5
   17.01    4056.2
   17.47    4027.0
   18.29    3977.5
   18.33    3975.4
   18.43    3969.4
   18.53    3963.5
   18.74    3951.7
   18.94    3939.9
   19.15    3928.0
   19.60    3903.3
   19.83    3890.9
   20.06    3878.5
   20.53    3853.8
   21.02    3829.0
   21.59    3801.0
   21.64    3798.3
   21.70    3795.7
   21.81    3790.3
   22.04    3779.5
   22.48    3758.6
   22.95    3737.7
   23.03    3733.8
   23.12    3730.0
   23.68    3705.3
   24.27    3680.5
   24.39    3675.6
   24.94    3653.3
   25.51    3631.0
   25.58    3628.5
   25.64    3626.0
   26.23    3603.7
   26.85    3581.3
   27.09    3572.7
   27.69    3552.2
   28.29    3531.7
   28.63    3520.6
   29.25    3501.3
   29.87    3482.0
   30.48    3501.3
   31.10    3520.6
   31.44    3531.7
   32.04    3552.2
   32.64    3572.7
   32.89    3581.3
   33.50    3603.7
   34.09    3626.0
   34.16    3628.5
   34.22    3631.0
   34.79    3653.3
   35.34    3675.6
   35.46    3680.5
   36.05    3705.3
   36.62    3730.0
   36.70    3733.8
   36.79    3737.7
   37.25    3758.6
   37.70    3779.5
   37.92    3790.3
   38.04    3795.7
   38.09    3798.3
   38.15    3801.0
   38.71    3829.0
   39.20    3853.8
   39.67    3878.5
   39.90    3890.9
   40.13    3903.3
   40.58    3928.0
   40.79    3939.9
   41.00    3951.7
   41.20    3963.5
   41.30    3969.4
   41.40    3975.4
   41.44    3977.5
   42.26    4027.0
   42.73    4056.2
   43.04    4076.5
   43.79    4126.0
   43.98    4139.0
   44.50    4175.5
   45.17    4223.8
   45.19    4225.0
   45.84    4274.5
   46.31    4310.6
   46.47    4324.0
   46.78    4348.8
   47.08    4373.5
   47.24    4386.5
   47.31    4393.0
   47.39    4399.4
   47.66    4423.0
   47.95    4447.8
   48.23    4472.5
   48.36    4484.9
   48.50    4497.3
   48.64    4509.7
   48.77    4522.0
   48.77    4522.3
   48.78    4522.6
   49.04    4547.1
   49.29    4571.5
   49.42    4583.9
   49.55    4596.3
   49.80    4621.0
   49.80    4621.8
   49.81    4622.5
   50.05    4646.6
   50.29    4670.5
   50.40    4682.9
   50.52    4695.3
   50.76    4720.0
   50.78    4722.2
   50.80    4724.4
   51.01    4747.0
   51.21    4769.5
   51.33    4781.9
   51.44    4794.3
   51.66    4819.0
   51.70    4823.6
   51.74    4828.2
   52.08    4868.5
   52.29    4893.3
   52.50    4918.0
   52.56    4925.8
   52.63    4933.5
   52.90    4967.5
   53.08    4990.1
   53.26    5012.6
   53.27    5014.8
   53.29    5017.0
   53.48    5041.8
   53.67    5066.5
   53.77    5079.3
   53.81    5085.7
   53.84    5088.9
   53.86    5092.1
   53.95    5104.1
   53.95    5104.4
   53.99    5110.0
   54.04    5116.0
   54.05    5118.1
   54.10    5124.6
   54.15    5131.0
   54.17    5134.2
   54.19    5137.4
   54.22    5140.6
   54.23    5142.2
   54.23    5143.0
   54.24    5143.8
   54.39    5165.5
   54.57    5190.3
   54.74    5215.0
   54.82    5227.2
   54.91    5239.3
   55.08    5264.5
   55.24    5288.9
   55.40    5314.0
   55.56    5338.3
   55.72    5363.5
   55.87    5387.8
   56.03    5413.0
   56.17    5437.3
   56.33    5462.5
   56.47    5486.8
   56.62    5512.0
   56.76    5536.3
   56.83    5548.9
   56.90    5561.5
   56.93    5567.6
   56.97    5573.6
   57.04    5585.7
   57.07    5592.1
   57.11    5598.4
   57.14    5604.7
   57.17    5611.0
   57.24    5623.4
   57.34    5642.3
   57.44    5661.0
   57.48    5669.1
   57.53    5677.2
   57.54    5679.4
   57.61    5693.2
   57.65    5702.1
   57.68    5706.6
   57.70    5711.0
   57.77    5727.5
   57.78    5729.8
   57.85    5743.9
   57.87    5748.3
   57.92    5760.0
   57.92    5761.0
   57.95    5766.6
   58.00    5777.2
   58.07    5793.3
   58.14    5811.0
   58.21    5827.2
   58.23    5832.5
   58.24    5835.1
   58.25    5836.4
   58.25    5837.1
   58.25    5837.4
   58.25    5837.8
   58.26    5839.1
   58.27    5840.5
   58.27    5841.9
   58.27    5842.6
   58.28    5842.9
   58.28    5843.3
   58.28    5843.3
   58.31    5850.9
   58.35    5861.0
   58.39    5869.8
   58.47    5890.6
   58.51    5900.8
   58.55    5911.0
   58.57    5915.1
   58.58    5919.1
   58.61    5927.2
   58.64    5935.3
   58.67    5943.2
   58.69    5947.7
   58.71    5952.1
   58.72    5956.6
   58.74    5961.0
   58.79    5975.9
   58.85    5990.7
   58.90    6005.4
   58.92    6011.0
   58.95    6019.8
   58.97    6027.3
   59.03    6043.4
   59.09    6061.0
   59.13    6073.2
   59.17    6085.3
   59.20    6097.3
   59.25    6111.0
   59.29    6123.2
   59.32    6135.3
   59.36    6147.3
   59.40    6161.0
   59.45    6175.1
   59.49    6189.1
   59.52    6197.6
   59.54    6206.0
   59.59    6221.5
   59.61    6228.4
   59.64    6239.7
   59.68    6251.0
   59.68    6253.3
   59.73    6270.2
   59.73    6271.0
   59.77    6281.9
   59.80    6293.5
   59.83    6304.1
   59.86    6314.6
   59.89    6325.3
   59.91    6330.7
   59.92    6333.3
   59.92    6334.7
   59.92    6336.0
   59.94    6343.5
   59.95    6347.2
   59.95    6349.1
   59.96    6350.1
   59.96    6351.0
   59.97    6356.0
   59.98    6361.0
   59.99    6366.0
   59.99    6368.5
   60.00    6369.8
   60.00    6371.0
END
gmt psxy -P -R -O -JP -m -A >> phases_P_S_Pp_ScS_path.gmt.ps <<END
END
